Theta [deg.]  Phi   [deg.]  Abs(Dir.)[dBi   ]   Abs(Theta)[dBi   ]  Phase(Theta)[deg.]  Abs(Phi  )[dBi   ]  Phase(Phi  )[deg.]  Ax.Ratio[dB    ]    
------------------------------------------------------------------------------------------------------------------------------------------------------
   0.000          90.000           -1.241e+02          -1.264e+02              95.696          -1.280e+02             276.054           4.000e+01     
   1.000          90.000           -3.336e+01          -3.336e+01             293.630          -1.278e+02             278.202           4.000e+01     
   2.000          90.000           -2.734e+01          -2.734e+01             293.630          -1.276e+02             280.250           4.000e+01     
   3.000          90.000           -2.382e+01          -2.382e+01             293.630          -1.274e+02             282.204           4.000e+01     
   4.000          90.000           -2.132e+01          -2.132e+01             293.630          -1.272e+02             284.069           4.000e+01     
   5.000          90.000           -1.939e+01          -1.939e+01             293.630          -1.270e+02             285.849           4.000e+01     
   6.000          90.000           -1.781e+01          -1.781e+01             293.630          -1.268e+02             287.550           4.000e+01     
   7.000          90.000           -1.647e+01          -1.647e+01             293.630          -1.266e+02             289.175           4.000e+01     
   8.000          90.000           -1.532e+01          -1.532e+01             293.630          -1.265e+02             290.729           4.000e+01     
   9.000          90.000           -1.431e+01          -1.431e+01             293.630          -1.263e+02             292.217           4.000e+01     
  10.000          90.000           -1.340e+01          -1.340e+01             293.630          -1.261e+02             293.643           4.000e+01     
  11.000          90.000           -1.258e+01          -1.258e+01             293.630          -1.259e+02             295.011           4.000e+01     
  12.000          90.000           -1.183e+01          -1.183e+01             293.630          -1.257e+02             296.325           4.000e+01     
  13.000          90.000           -1.115e+01          -1.115e+01             293.630          -1.256e+02             297.588           4.000e+01     
  14.000          90.000           -1.052e+01          -1.052e+01             293.630          -1.254e+02             298.804           4.000e+01     
  15.000          90.000           -9.932e+00          -9.932e+00             293.630          -1.253e+02             299.975           4.000e+01     
  16.000          90.000           -9.385e+00          -9.385e+00             293.630          -1.251e+02             301.106           4.000e+01     
  17.000          90.000           -8.873e+00          -8.873e+00             293.630          -1.250e+02             302.198           4.000e+01     
  18.000          90.000           -8.392e+00          -8.392e+00             293.630          -1.248e+02             303.255           4.000e+01     
  19.000          90.000           -7.938e+00          -7.938e+00             293.630          -1.247e+02             304.278           4.000e+01     
  20.000          90.000           -7.510e+00          -7.510e+00             293.630          -1.245e+02             305.270           4.000e+01     
  21.000          90.000           -7.104e+00          -7.104e+00             293.630          -1.244e+02             306.233           4.000e+01     
  22.000          90.000           -6.719e+00          -6.719e+00             293.630          -1.243e+02             307.169           4.000e+01     
  23.000          90.000           -6.353e+00          -6.353e+00             293.630          -1.241e+02             308.080           4.000e+01     
  24.000          90.000           -6.004e+00          -6.004e+00             293.630          -1.240e+02             308.968           4.000e+01     
  25.000          90.000           -5.671e+00          -5.671e+00             293.630          -1.239e+02             309.834           4.000e+01     
  26.000          90.000           -5.353e+00          -5.353e+00             293.630          -1.238e+02             310.679           4.000e+01     
  27.000          90.000           -5.049e+00          -5.049e+00             293.630          -1.237e+02             311.506           4.000e+01     
  28.000          90.000           -4.757e+00          -4.757e+00             293.630          -1.236e+02             312.315           4.000e+01     
  29.000          90.000           -4.478e+00          -4.478e+00             293.630          -1.235e+02             313.108           4.000e+01     
  30.000          90.000           -4.210e+00          -4.210e+00             293.630          -1.234e+02             313.886           4.000e+01     
  31.000          90.000           -3.952e+00          -3.952e+00             293.630          -1.233e+02             314.650           4.000e+01     
  32.000          90.000           -3.704e+00          -3.704e+00             293.630          -1.232e+02             315.401           4.000e+01     
  33.000          90.000           -3.466e+00          -3.466e+00             293.630          -1.231e+02             316.141           4.000e+01     
  34.000          90.000           -3.237e+00          -3.237e+00             293.630          -1.230e+02             316.869           4.000e+01     
  35.000          90.000           -3.016e+00          -3.016e+00             293.630          -1.230e+02             317.587           4.000e+01     
  36.000          90.000           -2.803e+00          -2.803e+00             293.630          -1.229e+02             318.297           4.000e+01     
  37.000          90.000           -2.598e+00          -2.598e+00             293.630          -1.228e+02             318.997           4.000e+01     
  38.000          90.000           -2.400e+00          -2.400e+00             293.630          -1.227e+02             319.691           4.000e+01     
  39.000          90.000           -2.210e+00          -2.210e+00             293.630          -1.227e+02             320.377           4.000e+01     
  40.000          90.000           -2.025e+00          -2.025e+00             293.630          -1.226e+02             321.057           4.000e+01     
  41.000          90.000           -1.848e+00          -1.848e+00             293.630          -1.226e+02             321.732           4.000e+01     
  42.000          90.000           -1.676e+00          -1.676e+00             293.630          -1.225e+02             322.402           4.000e+01     
  43.000          90.000           -1.510e+00          -1.510e+00             293.630          -1.224e+02             323.068           4.000e+01     
  44.000          90.000           -1.350e+00          -1.350e+00             293.630          -1.224e+02             323.730           4.000e+01     
  45.000          90.000           -1.196e+00          -1.196e+00             293.630          -1.224e+02             324.390           4.000e+01     
  46.000          90.000           -1.047e+00          -1.047e+00             293.630          -1.223e+02             325.047           4.000e+01     
  47.000          90.000           -9.025e-01          -9.025e-01             293.630          -1.223e+02             325.702           4.000e+01     
  48.000          90.000           -7.633e-01          -7.633e-01             293.630          -1.222e+02             326.356           4.000e+01     
  49.000          90.000           -6.289e-01          -6.289e-01             293.630          -1.222e+02             327.010           4.000e+01     
  50.000          90.000           -4.992e-01          -4.992e-01             293.630          -1.222e+02             327.663           4.000e+01     
  51.000          90.000           -3.740e-01          -3.740e-01             293.630          -1.221e+02             328.317           4.000e+01     
  52.000          90.000           -2.531e-01          -2.531e-01             293.630          -1.221e+02             328.972           4.000e+01     
  53.000          90.000           -1.366e-01          -1.366e-01             293.630          -1.221e+02             329.628           4.000e+01     
  54.000          90.000           -2.413e-02          -2.413e-02             293.630          -1.221e+02             330.286           4.000e+01     
  55.000          90.000            8.424e-02           8.424e-02             293.629          -1.221e+02             330.946           4.000e+01     
  56.000          90.000            1.887e-01           1.887e-01             293.629          -1.221e+02             331.610           4.000e+01     
  57.000          90.000            2.893e-01           2.893e-01             293.629          -1.220e+02             332.277           4.000e+01     
  58.000          90.000            3.861e-01           3.861e-01             293.629          -1.220e+02             332.948           4.000e+01     
  59.000          90.000            4.792e-01           4.792e-01             293.629          -1.220e+02             333.623           4.000e+01     
  60.000          90.000            5.687e-01           5.687e-01             293.629          -1.220e+02             334.303           4.000e+01     
  61.000          90.000            6.547e-01           6.547e-01             293.629          -1.220e+02             334.989           4.000e+01     
  62.000          90.000            7.372e-01           7.372e-01             293.629          -1.220e+02             335.681           4.000e+01     
  63.000          90.000            8.163e-01           8.163e-01             293.629          -1.220e+02             336.380           4.000e+01     
  64.000          90.000            8.921e-01           8.921e-01             293.629          -1.221e+02             337.085           4.000e+01     
  65.000          90.000            9.646e-01           9.646e-01             293.629          -1.221e+02             337.798           4.000e+01     
  66.000          90.000            1.034e+00           1.034e+00             293.629          -1.221e+02             338.519           4.000e+01     
  67.000          90.000            1.100e+00           1.100e+00             293.629          -1.221e+02             339.249           4.000e+01     
  68.000          90.000            1.163e+00           1.163e+00             293.629          -1.221e+02             339.989           4.000e+01     
  69.000          90.000            1.223e+00           1.223e+00             293.629          -1.221e+02             340.737           4.000e+01     
  70.000          90.000            1.280e+00           1.280e+00             293.629          -1.222e+02             341.497           4.000e+01     
  71.000          90.000            1.334e+00           1.334e+00             293.629          -1.222e+02             342.267           4.000e+01     
  72.000          90.000            1.384e+00           1.384e+00             293.629          -1.222e+02             343.049           4.000e+01     
  73.000          90.000            1.432e+00           1.432e+00             293.629          -1.222e+02             343.843           4.000e+01     
  74.000          90.000            1.477e+00           1.477e+00             293.629          -1.223e+02             344.650           4.000e+01     
  75.000          90.000            1.520e+00           1.520e+00             293.629          -1.223e+02             345.470           4.000e+01     
  76.000          90.000            1.559e+00           1.559e+00             293.629          -1.223e+02             346.304           4.000e+01     
  77.000          90.000            1.595e+00           1.595e+00             293.629          -1.224e+02             347.153           4.000e+01     
  78.000          90.000            1.629e+00           1.629e+00             293.629          -1.224e+02             348.018           4.000e+01     
  79.000          90.000            1.660e+00           1.660e+00             293.629          -1.224e+02             348.898           4.000e+01     
  80.000          90.000            1.688e+00           1.688e+00             293.629          -1.225e+02             349.795           4.000e+01     
  81.000          90.000            1.714e+00           1.714e+00             293.629          -1.225e+02             350.709           4.000e+01     
  82.000          90.000            1.736e+00           1.736e+00             293.629          -1.226e+02             351.641           4.000e+01     
  83.000          90.000            1.757e+00           1.757e+00             293.629          -1.226e+02             352.592           4.000e+01     
  84.000          90.000            1.774e+00           1.774e+00             293.629          -1.227e+02             353.563           4.000e+01     
  85.000          90.000            1.788e+00           1.788e+00             293.629          -1.227e+02             354.553           4.000e+01     
  86.000          90.000            1.800e+00           1.800e+00             293.629          -1.228e+02             355.564           4.000e+01     
  87.000          90.000            1.810e+00           1.810e+00             293.629          -1.228e+02             356.597           4.000e+01     
  88.000          90.000            1.816e+00           1.816e+00             293.629          -1.229e+02             357.652           4.000e+01     
  89.000          90.000            1.820e+00           1.820e+00             293.629          -1.229e+02             358.730           4.000e+01     
  90.000          90.000            1.822e+00           1.822e+00             293.629          -1.230e+02             359.830           4.000e+01     
  91.000          90.000            1.820e+00           1.820e+00             293.629          -1.230e+02               0.955           4.000e+01     
  92.000          90.000            1.816e+00           1.816e+00             293.629          -1.231e+02               2.105           4.000e+01     
  93.000          90.000            1.810e+00           1.810e+00             293.629          -1.232e+02               3.280           4.000e+01     
  94.000          90.000            1.800e+00           1.800e+00             293.629          -1.232e+02               4.480           4.000e+01     
  95.000          90.000            1.788e+00           1.788e+00             293.629          -1.233e+02               5.707           4.000e+01     
  96.000          90.000            1.774e+00           1.774e+00             293.629          -1.233e+02               6.960           4.000e+01     
  97.000          90.000            1.757e+00           1.757e+00             293.629          -1.234e+02               8.240           4.000e+01     
  98.000          90.000            1.736e+00           1.736e+00             293.629          -1.234e+02               9.547           4.000e+01     
  99.000          90.000            1.714e+00           1.714e+00             293.629          -1.235e+02              10.881           4.000e+01     
 100.000          90.000            1.688e+00           1.688e+00             293.629          -1.235e+02              12.243           4.000e+01     
 101.000          90.000            1.660e+00           1.660e+00             293.629          -1.236e+02              13.632           4.000e+01     
 102.000          90.000            1.629e+00           1.629e+00             293.629          -1.236e+02              15.048           4.000e+01     
 103.000          90.000            1.595e+00           1.595e+00             293.629          -1.237e+02              16.492           4.000e+01     
 104.000          90.000            1.559e+00           1.559e+00             293.629          -1.237e+02              17.962           4.000e+01     
 105.000          90.000            1.520e+00           1.520e+00             293.629          -1.237e+02              19.457           4.000e+01     
 106.000          90.000            1.477e+00           1.477e+00             293.629          -1.238e+02              20.979           4.000e+01     
 107.000          90.000            1.432e+00           1.432e+00             293.629          -1.238e+02              22.524           4.000e+01     
 108.000          90.000            1.384e+00           1.384e+00             293.629          -1.238e+02              24.094           4.000e+01     
 109.000          90.000            1.334e+00           1.334e+00             293.629          -1.239e+02              25.685           4.000e+01     
 110.000          90.000            1.280e+00           1.280e+00             293.629          -1.239e+02              27.298           4.000e+01     
 111.000          90.000            1.223e+00           1.223e+00             293.629          -1.239e+02              28.931           4.000e+01     
 112.000          90.000            1.163e+00           1.163e+00             293.629          -1.239e+02              30.581           4.000e+01     
 113.000          90.000            1.100e+00           1.100e+00             293.629          -1.239e+02              32.248           4.000e+01     
 114.000          90.000            1.034e+00           1.034e+00             293.629          -1.239e+02              33.929           4.000e+01     
 115.000          90.000            9.646e-01           9.646e-01             293.629          -1.239e+02              35.622           4.000e+01     
 116.000          90.000            8.921e-01           8.921e-01             293.629          -1.239e+02              37.325           4.000e+01     
 117.000          90.000            8.163e-01           8.163e-01             293.629          -1.239e+02              39.036           4.000e+01     
 118.000          90.000            7.372e-01           7.372e-01             293.629          -1.239e+02              40.753           4.000e+01     
 119.000          90.000            6.547e-01           6.547e-01             293.629          -1.238e+02              42.472           4.000e+01     
 120.000          90.000            5.687e-01           5.687e-01             293.629          -1.238e+02              44.193           4.000e+01     
 121.000          90.000            4.792e-01           4.792e-01             293.629          -1.238e+02              45.911           4.000e+01     
 122.000          90.000            3.861e-01           3.861e-01             293.629          -1.237e+02              47.626           4.000e+01     
 123.000          90.000            2.892e-01           2.892e-01             293.629          -1.237e+02              49.333           4.000e+01     
 124.000          90.000            1.887e-01           1.887e-01             293.629          -1.236e+02              51.032           4.000e+01     
 125.000          90.000            8.424e-02           8.424e-02             293.629          -1.236e+02              52.719           4.000e+01     
 126.000          90.000           -2.413e-02          -2.413e-02             293.629          -1.235e+02              54.393           4.000e+01     
 127.000          90.000           -1.366e-01          -1.366e-01             293.629          -1.234e+02              56.051           4.000e+01     
 128.000          90.000           -2.531e-01          -2.531e-01             293.629          -1.233e+02              57.692           4.000e+01     
 129.000          90.000           -3.740e-01          -3.740e-01             293.629          -1.233e+02              59.314           4.000e+01     
